Sampling fequency [Hz]:	100	x-velocity [mm/s]: 	100	Track length [mm]:	10	Cycles:	9000
Fx	Fy	Fz	Tx	Ty	Tz	x-Position
0.025	2.016	-23.290	0.023	0.062	0.003	0.000
0.094	1.950	-23.524	0.026	0.066	0.000	0.000
0.169	1.827	-23.395	0.026	0.066	0.003	0.000
0.981	1.736	-23.013	0.026	0.088	0.003	0.000
0.811	1.187	-21.848	0.045	0.120	0.007	0.000
3.161	0.382	-22.969	0.068	0.101	0.016	131.000
7.274	0.167	-22.965	0.083	0.063	0.016	215.000
2.480	-0.879	-23.241	0.085	0.220	-0.018	368.000
5.298	-0.436	-22.618	0.089	0.214	0.015	434.000
5.815	-0.528	-24.044	0.083	0.241	0.005	704.000
7.172	-0.411	-23.126	0.083	0.258	0.018	843.000
5.875	-0.310	-24.615	0.084	0.241	0.007	843.000
9.585	0.091	-23.457	0.073	0.299	0.036	843.000
6.469	-0.644	-24.066	0.073	0.271	0.005	1839.000
8.934	-0.046	-22.773	0.074	0.315	0.027	2146.000
9.586	-0.539	-22.768	0.064	0.352	0.036	2146.000
10.852	0.406	-22.585	0.062	0.362	0.023	2146.000
11.411	-0.182	-22.688	0.075	0.359	0.021	3521.000
11.446	0.266	-20.232	0.066	0.378	0.041	3855.000
12.673	0.023	-19.074	0.066	0.382	0.040	3855.000
11.976	-0.187	-20.015	0.067	0.378	0.044	3855.000
13.031	-1.012	-17.374	0.071	0.397	0.009	5379.000
10.688	-0.325	-19.728	0.079	0.387	0.058	5789.000
13.099	-1.023	-16.594	0.076	0.402	0.028	6015.000
14.085	-0.850	-15.023	0.066	0.410	0.026	6015.000
14.605	-0.800	-13.873	0.060	0.416	0.040	6015.000
14.674	-0.395	-14.152	0.066	0.414	0.028	6015.000
13.546	-1.252	-13.250	0.065	0.427	0.043	7248.000
13.564	-0.872	-16.064	0.069	0.405	0.012	7374.000
9.436	-0.785	-18.271	0.075	0.407	0.041	7374.000
7.618	0.122	-22.700	0.083	0.380	0.001	7374.000
5.254	-0.170	-21.623	0.085	0.401	0.013	7861.000
3.998	-0.376	-22.408	0.081	0.403	-0.025	7890.000
6.541	-1.273	-23.119	0.077	0.383	0.010	7890.000
3.968	-0.195	-25.513	0.086	0.376	-0.005	7890.000
4.404	-0.436	-23.494	0.082	0.390	0.025	8000.000
3.342	-0.560	-25.575	0.077	0.379	-0.015	7999.000
-2.083	-0.154	-25.984	0.086	0.317	-0.001	7976.000
-8.178	-0.056	-25.732	0.076	0.149	-0.014	7976.000
0.773	1.448	-24.012	0.081	0.136	-0.004	7976.000
-8.070	-0.320	-25.399	0.083	0.199	-0.028	7634.000
-4.604	0.032	-22.194	0.077	0.166	-0.019	7634.000
-8.036	-0.247	-24.755	0.083	0.135	-0.022	7634.000
-7.026	-0.501	-22.252	0.073	0.104	-0.023	6972.000
-6.786	-0.865	-21.844	0.086	0.073	-0.024	6903.000
-9.001	0.058	-21.823	0.080	0.068	-0.039	6381.000
-6.534	-0.036	-21.990	0.070	0.091	-0.010	6301.000
-4.461	-0.571	-20.096	0.071	0.105	-0.031	6301.000
-3.733	-0.572	-22.217	0.079	0.104	-0.000	6301.000
-3.265	-0.279	-19.299	0.076	0.129	-0.014	6301.000
-4.374	0.085	-22.713	0.074	0.135	-0.029	4383.000
0.394	-0.061	-17.535	0.070	0.140	0.004	3923.000
-0.810	-0.869	-15.559	0.066	0.105	-0.023	3923.000
1.655	-0.152	-15.090	0.068	0.114	-0.012	3110.000
-2.832	-0.339	-16.759	0.053	0.040	0.012	2736.000
-1.559	0.267	-16.959	0.055	0.078	-0.022	2736.000
-2.302	-0.418	-15.765	0.072	0.053	-0.033	2736.000
0.031	-0.362	-12.379	0.052	0.029	0.012	2736.000
-0.241	-0.510	-12.344	0.056	0.043	-0.030	1165.000
-1.254	-0.532	-13.723	0.051	0.028	-0.015	883.000
-3.137	-0.217	-16.824	0.055	0.010	-0.001	715.000
-2.087	0.008	-16.964	0.065	-0.023	-0.016	507.000
-2.242	-0.189	-16.095	0.070	0.008	-0.007	437.000
-3.421	-0.399	-15.067	0.056	0.015	-0.010	437.000
-0.533	0.387	-14.000	0.052	-0.074	-0.011	437.000
-3.600	0.526	-15.259	0.060	0.062	-0.008	62.000
-1.190	-0.574	-16.076	0.059	-0.027	-0.003	62.000
-0.502	0.074	-17.326	0.071	0.011	-0.012	0.000
0.144	-0.143	-18.407	0.069	0.057	-0.008	0.000
1.759	-0.783	-18.441	0.076	0.076	-0.002	0.000
-0.974	-0.205	-18.165	0.059	0.039	0.007	0.000
-4.879	-1.161	-17.880	0.044	0.115	-0.020	246.000
6.915	0.550	-16.122	0.061	0.086	0.021	325.000
3.664	0.134	-21.207	0.061	0.151	-0.012	412.000
4.111	-0.223	-18.787	0.067	0.168	0.018	707.000
6.363	0.008	-22.562	0.073	0.228	0.015	963.000
7.238	-0.159	-21.755	0.069	0.247	0.006	963.000
7.901	0.079	-21.981	0.073	0.274	0.042	963.000
6.469	-0.485	-22.003	0.072	0.242	0.001	1887.000
8.111	-0.385	-22.206	0.072	0.300	0.039	2018.000
9.208	-0.425	-22.882	0.068	0.342	0.005	2603.000
11.257	0.064	-23.252	0.072	0.354	0.028	2984.000
9.465	-0.226	-23.197	0.070	0.364	0.044	3429.000
10.711	-0.077	-19.871	0.067	0.387	0.022	3589.000
11.070	-0.585	-20.014	0.066	0.382	0.061	4437.000
10.271	-0.547	-19.676	0.068	0.392	-0.013	4925.000
13.474	-0.633	-16.493	0.063	0.398	0.088	4925.000
11.998	-0.711	-17.865	0.066	0.398	-0.009	4925.000
13.879	-0.564	-15.384	0.066	0.407	0.048	6126.000
13.744	-0.580	-15.424	0.071	0.407	0.049	6446.000
12.397	-0.595	-15.877	0.076	0.411	0.028	6633.000
12.362	-0.814	-15.322	0.082	0.417	0.027	6872.000
12.877	-0.177	-15.999	0.077	0.406	0.058	7051.000
10.866	-0.747	-18.555	0.074	0.398	0.017	7051.000
6.228	-0.487	-21.225	0.076	0.400	-0.000	7590.000
5.721	-0.751	-22.853	0.080	0.387	0.046	7740.000
9.943	0.005	-23.269	0.074	0.363	-0.009	7740.000
5.753	-0.969	-22.156	0.073	0.362	0.052	7941.000
5.374	0.181	-24.028	0.082	0.370	-0.011	7974.000
2.616	-0.686	-23.470	0.075	0.378	0.027	8000.000
4.707	0.085	-22.107	0.074	0.372	0.003	8000.000
3.644	-0.342	-23.960	0.079	0.390	0.021	8000.000
4.907	-0.473	-23.472	0.072	0.388	-0.007	8000.000
4.380	-0.425	-23.551	0.080	0.389	0.021	8000.000
4.122	-0.502	-23.399	0.074	0.378	-0.001	8000.000
2.967	-0.329	-23.502	0.081	0.348	0.009	7998.000
-1.155	-0.198	-23.510	0.083	0.248	-0.004	7943.000
-7.627	-0.200	-24.048	0.062	0.269	-0.038	7889.000
0.792	0.747	-21.921	0.071	0.140	0.000	7754.000
-3.235	-1.099	-21.423	0.075	0.242	-0.031	7715.000
-1.041	-0.059	-21.180	0.085	0.206	-0.006	7715.000
-6.750	-0.710	-23.413	0.077	0.171	-0.042	7715.000
-4.226	-0.464	-19.487	0.081	0.115	-0.013	7019.000
-6.286	-0.362	-20.775	0.081	0.103	-0.027	6877.000
-5.468	-0.311	-19.626	0.074	0.106	-0.035	6575.000
-5.138	0.320	-19.783	0.061	0.114	0.006	6575.000
-4.688	-0.232	-19.974	0.062	0.116	-0.051	6575.000
-4.716	0.221	-19.967	0.072	0.129	-0.005	5319.000
-1.796	-0.024	-15.108	0.055	0.077	-0.004	5319.000
-0.874	-0.615	-16.005	0.051	0.108	-0.016	5319.000
-2.116	0.199	-17.074	0.062	0.105	0.008	4115.000
2.067	-0.193	-12.673	0.043	0.077	-0.056	3534.000
-2.126	-0.321	-16.461	0.065	0.071	0.048	3425.000
0.673	0.064	-11.848	0.037	0.092	-0.037	3425.000
1.986	-0.942	-12.983	0.062	0.065	0.006	3425.000
-2.718	0.459	-15.440	0.042	0.044	-0.000	1842.000
-0.400	-0.415	-11.785	0.050	0.035	-0.017	1551.000
-2.753	-0.750	-12.053	0.045	-0.022	-0.019	1254.000
-2.603	0.298	-14.050	0.044	0.006	0.015	1105.000
-3.276	-0.351	-13.492	0.042	-0.025	-0.041	739.000
-0.549	-0.105	-11.928	0.051	0.013	0.021	570.000
-2.303	-0.220	-15.547	0.053	0.016	-0.021	509.000
-0.507	0.062	-15.344	0.054	0.012	-0.004	509.000
0.007	0.309	-13.281	0.053	0.016	-0.007	509.000
-3.539	-0.074	-17.885	0.061	0.011	-0.018	48.000
-3.311	-0.414	-15.994	0.061	-0.063	-0.016	34.000
-1.600	0.231	-15.273	0.045	-0.021	0.002	34.000
-3.099	-0.286	-15.851	0.053	-0.015	-0.011	34.000
-1.357	-0.136	-17.497	0.062	0.003	-0.004	0.000
2.072	-0.369	-18.127	0.064	0.105	-0.012	30.000
0.827	-0.927	-18.722	0.082	0.035	0.010	93.000
-1.941	-0.163	-18.370	0.064	0.156	-0.018	93.000
3.147	0.899	-17.223	0.065	0.099	0.003	93.000
1.030	-0.326	-20.951	0.067	0.181	-0.006	394.000
5.039	-0.136	-19.476	0.065	0.153	0.018	523.000
5.568	-0.670	-21.374	0.068	0.201	0.017	523.000
6.267	-0.383	-20.945	0.069	0.233	0.005	523.000
7.483	-0.218	-21.417	0.067	0.254	0.030	1348.000
8.101	-0.191	-21.794	0.069	0.272	0.027	1647.000
8.597	-0.485	-22.458	0.065	0.300	0.014	1647.000
8.612	0.032	-22.401	0.071	0.290	0.032	1647.000
10.592	-0.261	-23.037	0.063	0.341	0.011	2859.000
10.605	-0.461	-21.041	0.070	0.359	0.034	3168.000
10.061	-0.144	-20.991	0.071	0.380	0.032	3611.000
11.777	-0.179	-18.742	0.063	0.390	0.028	3611.000
9.143	-0.507	-21.141	0.066	0.385	0.016	3611.000
13.421	-0.486	-17.531	0.067	0.392	0.024	5178.000
10.895	-0.259	-17.829	0.070	0.402	0.047	5178.000
13.479	-0.603	-16.415	0.076	0.401	0.033	5959.000
12.288	-0.769	-16.397	0.071	0.408	0.026	6052.000
14.002	-0.418	-15.301	0.063	0.407	0.043	6052.000
11.788	-1.122	-16.055	0.068	0.414	0.028	6052.000
12.581	-1.185	-15.482	0.072	0.414	0.037	7118.000
10.712	-0.642	-18.080	0.076	0.402	0.025	7329.000
9.517	-0.735	-18.570	0.072	0.404	0.026	7463.000
7.083	-0.326	-21.893	0.073	0.389	0.014	7689.000
4.892	-1.603	-23.446	0.068	0.389	0.010	7810.000
4.408	-1.216	-21.451	0.068	0.396	0.020	7810.000
8.296	-0.401	-23.016	0.078	0.374	-0.007	7810.000
4.385	-0.808	-22.860	0.075	0.386	0.024	7810.000
5.586	-0.023	-21.912	0.072	0.392	0.001	7810.000
4.594	-0.440	-23.061	0.068	0.392	0.026	8000.000
4.835	-0.472	-23.100	0.074	0.391	-0.001	8000.000
0.960	-0.486	-24.339	0.078	0.320	0.002	7973.000
-1.386	-0.296	-21.138	0.077	0.199	-0.010	7973.000
-3.637	-0.317	-22.325	0.079	0.151	-0.014	7815.000
-2.886	0.758	-21.821	0.082	0.184	-0.017	7668.000
-6.171	-0.509	-20.395	0.068	0.132	-0.012	7668.000
-4.838	0.262	-20.686	0.074	0.118	-0.029	7668.000
-6.893	-1.336	-20.093	0.069	0.116	-0.022	7051.000
-5.128	-0.110	-21.136	0.075	0.099	-0.021	7051.000
-4.761	-0.958	-18.408	0.075	0.115	-0.014	6514.000
-1.576	-0.702	-17.529	0.076	0.101	-0.016	6305.000
-2.871	-1.277	-16.738	0.071	0.085	-0.012	6305.000
-1.120	-0.030	-17.975	0.068	0.102	-0.013	6305.000
-0.922	-1.115	-17.735	0.069	0.134	0.001	5180.000
-3.978	-0.137	-22.326	0.065	0.111	-0.037	4705.000
-3.148	0.284	-17.992	0.070	0.128	0.013	4705.000
2.822	-1.206	-13.555	0.059	0.087	0.000	4705.000
-2.477	0.236	-18.175	0.049	0.104	-0.037	3133.000
1.089	-0.071	-13.319	0.065	0.094	0.033	2756.000
-0.230	-0.857	-13.004	0.048	0.046	-0.029	2756.000
0.002	0.065	-16.709	0.055	0.095	0.009	2756.000
-1.079	-0.136	-15.909	0.064	0.036	-0.007	1614.000
2.182	-0.886	-12.937	0.045	0.091	-0.027	1322.000
-1.056	-0.639	-16.581	0.065	0.026	0.004	1064.000
-0.707	-0.734	-14.987	0.047	0.039	-0.006	1064.000
-1.932	-0.508	-15.003	0.057	0.008	-0.021	1064.000
-0.218	-0.335	-11.707	0.050	0.027	0.011	444.000
-1.033	-0.263	-14.209	0.053	0.008	-0.015	316.000
-3.557	-1.333	-18.583	0.057	0.063	-0.016	149.000
1.281	-0.027	-14.679	0.061	-0.015	-0.003	95.000
-3.057	-0.227	-19.321	0.066	0.052	-0.026	53.000
-1.564	-0.395	-18.743	0.071	0.030	-0.001	53.000
-0.858	-0.258	-19.166	0.065	0.022	-0.019	0.000
-1.191	0.023	-19.425	0.071	0.037	-0.012	8.000
-1.451	-0.492	-18.683	0.064	0.101	0.002	8.000
0.452	-0.147	-20.390	0.051	0.114	0.012	8.000
-0.211	0.182	-19.358	0.072	0.134	-0.001	196.000
5.758	0.083	-20.249	0.075	0.176	0.007	339.000
5.587	-0.315	-20.739	0.081	0.215	0.010	339.000
7.912	-0.277	-21.952	0.072	0.196	0.012	339.000
6.461	-0.427	-21.156	0.072	0.256	0.031	1076.000
9.342	-0.273	-21.918	0.068	0.259	0.020	1076.000
8.197	-0.193	-22.715	0.070	0.296	0.009	1076.000
9.944	-0.314	-23.316	0.070	0.312	0.039	1076.000
9.583	-0.304	-22.723	0.073	0.366	0.014	1076.000
10.602	-0.130	-22.697	0.072	0.364	0.013	1076.000
10.878	-0.164	-21.246	0.076	0.373	0.062	3172.000
14.098	-0.794	-19.743	0.070	0.370	0.023	3608.000
11.161	-0.613	-20.997	0.069	0.375	0.022	4180.000
12.349	-0.999	-18.607	0.069	0.389	0.026	4396.000
14.957	-0.514	-15.989	0.064	0.396	0.040	4396.000
13.219	-0.493	-16.415	0.074	0.402	0.034	4396.000
16.014	-0.567	-13.937	0.073	0.407	0.062	5926.000
13.571	-0.663	-15.503	0.063	0.410	-0.012	6159.000
14.332	-0.609	-14.844	0.073	0.407	0.094	6520.000
13.368	-0.967	-15.119	0.081	0.414	-0.003	6882.000
13.204	-0.922	-15.013	0.079	0.413	0.071	7006.000
13.347	-0.611	-15.984	0.076	0.407	0.004	7006.000
10.513	-0.576	-17.311	0.082	0.408	0.050	7542.000
8.341	-0.890	-19.975	0.074	0.400	-0.002	7588.000
7.200	-1.372	-19.731	0.075	0.407	0.033	7798.000
3.596	-1.980	-21.750	0.078	0.411	-0.009	7897.000
11.264	0.166	-19.075	0.087	0.389	0.055	7962.000
6.210	-0.069	-20.814	0.089	0.402	0.032	7962.000
8.916	-0.425	-20.854	0.080	0.388	0.022	7962.000
6.919	-0.446	-21.868	0.078	0.391	0.006	7962.000
6.750	-0.585	-21.388	0.080	0.395	0.021	7998.000
1.834	0.169	-26.551	0.085	0.376	0.002	7946.000
-0.274	-0.811	-27.725	0.086	0.323	-0.018	7874.000
-0.537	2.090	-26.606	0.082	0.115	0.006	7874.000
-7.581	-0.199	-28.630	0.092	0.226	-0.031	7874.000
-4.820	-0.441	-23.469	0.086	0.137	-0.025	7874.000
-4.918	-0.183	-25.064	0.089	0.156	-0.018	7371.000
-7.994	-0.241	-24.891	0.087	0.123	-0.030	7371.000
-7.342	-0.403	-24.843	0.091	0.130	-0.035	7371.000
-7.029	-0.201	-25.344	0.092	0.070	-0.023	6715.000
-4.158	-0.803	-21.352	0.091	0.143	-0.016	6715.000
-3.907	-0.556	-21.193	0.089	0.136	-0.038	6715.000
-4.370	-0.070	-20.572	0.080	0.094	-0.004	5427.000
-1.498	-0.607	-18.967	0.078	0.109	-0.041	5287.000
-0.999	-1.184	-17.028	0.074	0.110	0.015	5287.000
-0.294	-0.019	-20.302	0.074	0.089	-0.030	5287.000
-2.863	-0.652	-23.787	0.076	0.179	-0.005	3736.000
-3.361	0.657	-19.019	0.084	0.075	0.004	3416.000
2.703	-1.226	-18.744	0.065	0.075	-0.039	3416.000
-3.241	-0.040	-19.749	0.069	0.028	0.017	2306.000
-3.484	0.108	-21.396	0.061	0.045	-0.031	2085.000
-2.322	-0.171	-16.685	0.072	0.033	0.001	2085.000
-0.680	-0.125	-16.666	0.060	0.067	-0.017	2085.000
-2.384	-0.340	-19.926	0.064	0.030	-0.006	996.000
-2.563	-0.736	-16.971	0.066	0.056	-0.024	931.000
-0.308	-0.209	-15.030	0.068	0.031	0.002	931.000
-1.005	-0.779	-16.181	0.059	0.016	-0.015	931.000
-1.050	-0.111	-16.044	0.063	0.019	-0.004	300.000
-5.066	0.077	-17.255	0.060	0.062	-0.019	214.000
-1.995	0.337	-18.299	0.071	0.044	-0.013	86.000
-1.426	-0.655	-15.587	0.056	0.020	0.000	13.000
-0.674	0.322	-17.852	0.063	0.002	-0.020	0.000
-3.264	-0.231	-17.032	0.060	-0.025	-0.004	0.000
-1.977	0.133	-16.271	0.056	-0.025	-0.001	0.000
-1.951	-0.308	-17.579	0.059	0.015	-0.007	2.000
0.343	-0.435	-18.815	0.067	0.099	0.002	27.000
0.797	0.038	-21.343	0.063	0.180	0.000	122.000
5.480	0.858	-21.760	0.081	0.085	0.020	183.000
5.896	-0.690	-22.078	0.077	0.218	0.001	183.000
8.218	-0.338	-21.442	0.086	0.246	0.018	590.000
8.037	-0.403	-23.530	0.075	0.267	0.008	738.000
9.346	-0.251	-22.706	0.073	0.276	0.050	738.000
10.020	-0.118	-22.663	0.073	0.296	0.007	738.000
10.970	-0.665	-23.825	0.069	0.344	0.042	1618.000
11.074	-0.185	-23.921	0.075	0.351	0.014	1905.000
11.394	-0.096	-21.562	0.077	0.368	0.042	2252.000
12.322	-0.338	-20.849	0.073	0.370	0.029	2252.000
11.840	-0.010	-20.553	0.078	0.373	0.059	2252.000
13.773	-0.579	-18.399	0.064	0.383	0.023	3670.000
13.229	-0.219	-18.926	0.069	0.381	0.033	3670.000
14.226	-0.308	-17.661	0.069	0.386	0.047	3670.000
15.736	-0.556	-15.470	0.069	0.397	0.028	5085.000
13.520	-0.405	-16.205	0.077	0.402	0.049	5229.000
16.724	-0.676	-13.501	0.072	0.407	0.064	5229.000
14.725	-0.663	-14.785	0.068	0.410	-0.013	5229.000
15.465	-0.289	-14.169	0.078	0.407	0.088	6561.000
13.508	-0.627	-16.296	0.086	0.403	-0.004	6724.000
13.074	-0.599	-15.370	0.083	0.411	0.057	6724.000
13.704	-0.858	-14.669	0.076	0.415	0.033	7241.000
11.944	-0.813	-17.489	0.078	0.400	0.037	7443.000
9.912	-0.576	-19.722	0.081	0.393	0.010	7443.000
5.179	-1.141	-18.123	0.077	0.431	0.028	7443.000
9.216	-1.114	-20.401	0.079	0.391	0.017	7897.000
9.720	0.152	-18.066	0.090	0.407	0.020	7897.000
9.337	-0.799	-19.538	0.080	0.397	0.031	7897.000
10.314	-0.381	-19.894	0.079	0.389	0.023	8000.000
7.081	-0.495	-22.158	0.082	0.387	0.012	7998.000
3.153	-0.588	-24.587	0.086	0.388	0.003	7957.000
-0.137	0.388	-27.334	0.093	0.328	0.006	7957.000
-12.489	-1.850	-28.021	0.059	0.246	-0.031	7957.000
-3.642	-0.069	-26.667	0.090	0.178	-0.014	7606.000
-4.902	-0.434	-26.332	0.086	0.190	-0.023	7606.000
-6.076	0.191	-25.238	0.091	0.157	-0.026	7606.000
-7.318	0.015	-26.898	0.086	0.105	-0.032	7606.000
-7.780	-0.293	-26.069	0.096	0.131	-0.035	6856.000
-7.223	-1.135	-25.123	0.092	0.066	-0.003	6856.000
-5.822	-0.279	-25.187	0.088	0.127	-0.058	6109.000
-9.186	-0.022	-24.353	0.090	0.115	0.003	5777.000
-6.494	-0.077	-23.028	0.081	0.098	-0.055	5777.000
-6.290	0.219	-23.620	0.074	0.100	-0.007	5777.000
-5.608	-0.119	-23.185	0.079	0.075	-0.038	4654.000
-4.412	-0.118	-19.965	0.074	0.094	0.010	4163.000
-0.098	-0.526	-18.486	0.072	0.061	-0.065	4163.000
-4.217	-0.679	-22.216	0.073	0.061	0.038	4163.000
-5.001	0.372	-19.605	0.062	0.064	-0.035	2672.000
-3.150	-0.543	-15.990	0.065	-0.010	-0.025	2564.000
-2.179	0.139	-17.173	0.067	-0.010	0.010	2564.000
-5.665	-0.098	-20.320	0.061	-0.024	-0.012	2564.000
-4.549	0.477	-18.502	0.068	-0.033	-0.023	1242.000
-3.459	-0.813	-15.579	0.054	0.009	-0.017	985.000
-3.470	0.306	-18.230	0.063	-0.004	-0.014	909.000
-1.510	0.044	-18.523	0.058	0.007	-0.024	909.000
-2.552	-0.406	-16.856	0.062	0.023	-0.003	909.000
0.017	-0.531	-14.319	0.059	0.017	-0.004	276.000
3.606	0.192	-15.536	0.058	-0.048	-0.001	122.000
-2.290	-0.568	-15.690	0.054	0.006	0.002	62.000
-2.574	0.435	-15.505	0.057	-0.034	-0.010	21.000
-2.872	-0.351	-14.138	0.040	0.003	-0.012	21.000
-3.066	0.004	-14.047	0.050	-0.036	0.000	21.000
-2.410	-0.262	-15.187	0.052	-0.008	-0.009	0.000
2.289	-0.487	-15.283	0.058	0.084	-0.001	27.000
2.322	-1.050	-19.215	0.084	0.044	0.001	27.000
3.901	-0.588	-19.915	0.070	0.199	0.013	27.000
4.428	-1.056	-19.214	0.052	0.126	0.004	281.000
5.396	0.095	-22.655	0.071	0.168	0.021	330.000
4.091	-0.213	-23.187	0.060	0.222	0.011	640.000
11.714	0.514	-22.428	0.068	0.271	0.044	811.000
10.638	-0.134	-23.325	0.069	0.357	0.033	897.000
13.778	-0.337	-22.111	0.066	0.351	0.027	897.000
12.007	-0.150	-21.702	0.073	0.363	0.053	897.000
13.555	-0.237	-21.063	0.070	0.362	0.005	2067.000
14.837	0.008	-19.614	0.070	0.365	0.061	2445.000
15.220	0.014	-18.752	0.068	0.371	0.042	2829.000
15.915	-0.480	-17.282	0.076	0.380	0.050	3262.000
15.560	-0.496	-19.882	0.075	0.361	0.029	3262.000
16.665	-0.430	-15.595	0.074	0.391	0.039	3262.000
14.996	-0.367	-17.706	0.076	0.381	0.063	4719.000
16.507	-0.532	-15.300	0.079	0.395	0.028	4837.000
15.283	-0.613	-15.425	0.081	0.399	0.056	4837.000
17.050	-0.879	-13.244	0.082	0.408	0.067	5692.000
17.714	-0.741	-12.089	0.077	0.416	0.019	5692.000
18.543	-0.454	-11.626	0.063	0.413	0.057	5692.000
16.815	-0.683	-12.175	0.069	0.419	0.036	6844.000
17.076	-0.469	-12.342	0.073	0.416	0.039	7025.000
15.408	-0.848	-14.803	0.084	0.404	0.047	7025.000
12.669	-0.852	-15.959	0.086	0.410	0.021	7025.000
12.884	-0.511	-17.629	0.089	0.393	0.046	7704.000
18.090	-0.172	-18.994	0.086	0.354	0.035	7737.000
11.394	-1.596	-14.545	0.077	0.429	0.024	7910.000
18.384	-0.780	-14.894	0.089	0.387	0.048	7978.000
11.314	-1.144	-17.750	0.086	0.402	0.026	7978.000
12.697	-0.872	-15.796	0.083	0.411	0.021	8000.000
9.656	-0.701	-19.081	0.092	0.399	0.029	7986.000
4.521	-0.338	-24.425	0.092	0.382	0.003	7986.000
1.037	-0.249	-28.422	0.095	0.294	-0.012	7986.000
-9.822	-0.683	-29.773	0.067	0.246	-0.020	7739.000
-9.822	0.589	-30.190	0.090	0.123	-0.023	7664.000
-5.803	-0.624	-27.689	0.088	0.179	-0.024	7393.000
-8.047	0.223	-27.359	0.102	0.119	-0.031	7221.000
-10.020	0.069	-28.087	0.084	0.101	-0.042	7221.000
-8.652	-0.634	-25.209	0.094	0.066	-0.039	7221.000
-9.660	-0.551	-26.353	0.085	0.117	-0.029	6380.000
-6.847	0.317	-25.704	0.088	0.061	-0.018	5969.000
-4.979	-0.534	-21.304	0.087	0.083	-0.032	5897.000
-5.019	-0.587	-22.030	0.076	0.074	0.007	5192.000
-5.125	-0.931	-19.995	0.071	0.063	-0.031	4776.000
-5.329	-0.179	-20.564	0.072	0.057	0.012	4634.000
-5.170	-0.743	-22.885	0.071	0.098	-0.046	4634.000
-7.222	-0.178	-19.558	0.074	0.022	0.040	4634.000
-4.025	-0.599	-15.806	0.055	-0.021	-0.059	3022.000
-4.264	0.167	-15.511	0.059	-0.036	-0.007	3022.000
-5.038	0.191	-17.150	0.063	0.005	-0.019	3022.000
-5.299	-0.311	-19.526	0.065	-0.014	-0.013	1751.000
-1.698	-0.692	-19.462	0.074	0.029	-0.022	1751.000
-0.300	-0.930	-15.039	0.070	0.029	0.002	1181.000
-3.349	0.042	-17.904	0.068	0.010	-0.024	943.000
-4.219	-0.147	-19.201	0.063	-0.036	-0.030	943.000
-4.098	-0.438	-16.750	0.068	-0.007	-0.008	487.000
-2.727	-0.316	-15.599	0.053	-0.040	-0.022	349.000
-1.103	0.534	-16.652	0.054	-0.040	-0.002	349.000
-4.140	0.413	-18.400	0.061	-0.024	-0.022	349.000
-2.627	-0.533	-16.219	0.050	-0.028	-0.004	38.000
-1.429	0.691	-16.430	0.046	0.033	-0.021	38.000
